Frequency (Hz),Amplitude (|P1(f)|)
0.099967,0.000936
0.199934,0.000914
0.299901,0.000562
0.399868,0.000336
0.499835,0.001679
0.599802,0.001795
0.699769,0.001567
0.799737,0.000271
0.899704,0.001682
0.999671,0.001536
1.099638,0.002228
1.199605,0.003407
1.299572,0.002632
1.399539,0.004897
1.499506,0.004842
1.599473,0.003183
1.699440,0.002261
1.799407,0.003415
1.899374,0.002375
1.999341,0.001735
2.099308,0.005704
2.199276,0.003351
2.299243,0.002233
2.399210,0.003287
2.499177,0.000665
2.599144,0.004107
2.699111,0.002320
2.799078,0.006479
2.899045,0.006253
2.999012,0.002603
3.098979,0.003926
3.198946,0.007867
3.298913,0.006562
3.398880,0.010073
3.498847,0.007623
3.598814,0.002863
3.698782,0.007176
3.798749,0.007486
3.898716,0.008843
3.998683,0.007542
4.098650,0.014628
4.198617,0.005531
4.298584,0.007322
4.398551,0.003852
4.498518,0.005988
4.598485,0.003407
4.698452,0.005997
4.798419,0.002620
4.898386,0.005835
4.998353,0.007269
5.098321,0.003269
5.198288,0.004638
5.298255,0.001696
5.398222,0.000641
5.498189,0.000878
5.598156,0.002461
5.698123,0.001309
5.798090,0.001127
5.898057,0.000258
5.998024,0.000244
6.097991,0.002321
6.197958,0.001117
6.297925,0.000839
6.397892,0.002525
6.497859,0.000576
6.597827,0.001862
6.697794,0.001555
6.797761,0.001861
6.897728,0.000456
6.997695,0.001470
7.097662,0.000413
7.197629,0.002097
7.297596,0.001943
7.397563,0.004094
7.497530,0.001590
7.597497,0.001817
7.697464,0.000117
7.797431,0.001248
7.897398,0.000667
7.997366,0.001804
8.097333,0.000259
8.197300,0.001634
8.297267,0.000801
8.397234,0.002030
8.497201,0.000878
8.597168,0.001226
8.697135,0.000460
8.797102,0.001163
8.897069,0.001890
8.997036,0.001416
9.097003,0.001847
9.196970,0.001057
9.296937,0.001608
9.396904,0.000988
9.496872,0.001090
9.596839,0.000810
9.696806,0.001668
9.796773,0.001311
9.896740,0.002381
9.996707,0.002520
10.096674,0.002199
10.196641,0.001723
10.296608,0.001207
10.396575,0.001334
10.496542,0.001417
10.596509,0.001384
10.696476,0.001163
10.796443,0.001713
10.896410,0.000923
10.996378,0.000951
11.096345,0.000389
11.196312,0.001266
11.296279,0.002181
11.396246,0.000938
11.496213,0.000487
11.596180,0.001557
11.696147,0.001188
11.796114,0.002483
11.896081,0.003281
11.996048,0.001563
12.096015,0.003387
12.195982,0.003160
12.295949,0.002388
12.395917,0.001124
12.495884,0.000622
12.595851,0.002157
12.695818,0.001250
12.795785,0.000562
12.895752,0.000212
12.995719,0.001637
13.095686,0.001082
13.195653,0.002312
13.295620,0.001242
13.395587,0.002872
13.495554,0.004713
13.595521,0.001690
13.695488,0.000988
13.795455,0.000672
13.895423,0.001326
13.995390,0.002005
14.095357,0.003739
14.195324,0.001976
14.295291,0.003541
14.395258,0.004795
14.495225,0.001187
14.595192,0.001348
14.695159,0.003069
14.795126,0.002098
14.895093,0.001245
14.995060,0.003302
15.095027,0.001151
15.194994,0.003532
15.294962,0.000576
15.394929,0.002441
15.494896,0.001791
15.594863,0.004237
15.694830,0.002536
15.794797,0.001766
15.894764,0.003260
15.994731,0.006481
16.094698,0.004109
16.194665,0.002145
16.294632,0.007971
16.394599,0.007066
16.494566,0.010802
16.594533,0.009039
16.694500,0.004838
16.794468,0.015221
16.894435,0.023964
16.994402,0.021885
17.094369,0.027926
17.194336,0.024909
17.294303,0.082552
17.394270,0.039736
17.494237,0.014329
17.594204,0.003881
17.694171,0.013699
17.794138,0.011280
17.894105,0.005496
17.994072,0.006005
18.094039,0.001723
18.194007,0.003952
18.293974,0.004103
18.393941,0.003448
18.493908,0.003138
18.593875,0.004273
18.693842,0.003579
18.793809,0.000969
18.893776,0.000329
18.993743,0.001994
19.093710,0.004520
19.193677,0.001180
19.293644,0.001392
19.393611,0.000341
19.493578,0.002817
19.593545,0.003838
19.693513,0.004052
19.793480,0.002671
19.893447,0.001928
19.993414,0.002153
20.093381,0.000654
20.193348,0.002625
20.293315,0.003276
20.393282,0.002732
20.493249,0.000674
20.593216,0.000668
20.693183,0.000860
20.793150,0.001538
20.893117,0.002257
20.993084,0.002232
21.093052,0.001063
21.193019,0.002250
21.292986,0.001300
21.392953,0.002256
21.492920,0.003258
21.592887,0.000877
21.692854,0.001210
21.792821,0.000333
21.892788,0.000456
21.992755,0.000681
22.092722,0.002216
22.192689,0.000968
22.292656,0.002542
22.392623,0.002877
22.492590,0.001509
22.592558,0.001966
22.692525,0.002434
22.792492,0.002711
22.892459,0.000844
22.992426,0.001846
23.092393,0.000554
23.192360,0.002064
23.292327,0.001286
23.392294,0.001688
23.492261,0.000698
23.592228,0.001779
23.692195,0.001215
23.792162,0.001406
23.892129,0.001435
23.992097,0.000594
24.092064,0.001192
24.192031,0.000100
24.291998,0.001265
24.391965,0.000895
24.491932,0.000665
24.591899,0.000711
24.691866,0.000225
24.791833,0.000556
24.891800,0.000427
24.991767,0.000833
25.091734,0.001784
25.191701,0.001264
25.291668,0.000508
25.391635,0.001773
25.491603,0.000575
25.591570,0.000340
25.691537,0.001251
25.791504,0.001155
25.891471,0.000336
25.991438,0.001138
26.091405,0.001272
26.191372,0.000482
26.291339,0.000459
26.391306,0.001234
26.491273,0.002744
26.591240,0.001358
26.691207,0.000567
26.791174,0.000508
26.891141,0.001193
26.991109,0.001047
27.091076,0.001021
27.191043,0.000538
27.291010,0.000544
27.390977,0.000702
27.490944,0.001259
27.590911,0.000651
27.690878,0.000985
27.790845,0.001699
27.890812,0.000641
27.990779,0.000554
28.090746,0.001003
28.190713,0.000313
28.290680,0.000752
28.390648,0.000500
28.490615,0.000766
28.590582,0.000767
28.690549,0.000832
28.790516,0.000312
28.890483,0.001253
28.990450,0.000278
29.090417,0.000849
29.190384,0.001040
29.290351,0.000676
29.390318,0.000656
29.490285,0.001229
29.590252,0.001511
29.690219,0.001212
29.790186,0.000478
29.890154,0.000981
29.990121,0.000373
30.090088,0.001368
30.190055,0.000945
30.290022,0.000526
30.389989,0.000454
30.489956,0.000606
30.589923,0.000936
30.689890,0.000999
30.789857,0.000115
30.889824,0.001200
30.989791,0.000613
31.089758,0.001579
31.189725,0.000432
31.289693,0.000705
31.389660,0.000235
31.489627,0.000283
31.589594,0.000200
31.689561,0.000279
31.789528,0.000768
31.889495,0.000779
31.989462,0.000346
32.089429,0.000842
32.189396,0.000516
32.289363,0.000515
32.389330,0.000267
32.489297,0.000570
32.589264,0.000422
32.689231,0.000703
32.789199,0.000457
32.889166,0.000171
32.989133,0.000462
33.089100,0.000080
33.189067,0.000686
33.289034,0.000337
33.389001,0.000293
33.488968,0.000462
33.588935,0.000201
33.688902,0.000393
33.788869,0.000258
33.888836,0.000734
33.988803,0.000760
34.088770,0.000662
34.188738,0.002259
34.288705,0.001373
34.388672,0.000722
34.488639,0.001453
34.588606,0.002941
34.688573,0.001600
34.788540,0.001487
34.888507,0.000913
34.988474,0.001209
35.088441,0.001103
35.188408,0.000877
35.288375,0.000361
35.388342,0.000466
35.488309,0.000376
35.588276,0.000968
35.688244,0.001178
35.788211,0.001097
35.888178,0.000857
35.988145,0.000239
36.088112,0.000771
36.188079,0.000305
36.288046,0.001062
36.388013,0.000486
36.487980,0.000542
36.587947,0.000505
36.687914,0.000493
36.787881,0.000400
36.887848,0.000663
36.987815,0.000480
37.087783,0.000099
37.187750,0.000429
37.287717,0.000776
37.387684,0.000506
37.487651,0.000376
37.587618,0.000519
37.687585,0.000347
37.787552,0.000678
37.887519,0.000483
37.987486,0.000407
38.087453,0.000438
38.187420,0.000362
38.287387,0.000691
38.387354,0.000220
38.487321,0.000717
38.587289,0.000369
38.687256,0.000479
38.787223,0.001128
38.887190,0.000495
38.987157,0.000080
39.087124,0.000716
39.187091,0.000544
39.287058,0.000238
39.387025,0.000766
39.486992,0.000589
39.586959,0.000514
39.686926,0.000364
39.786893,0.000566
39.886860,0.000793
39.986828,0.000298
40.086795,0.000508
40.186762,0.000082
40.286729,0.000227
40.386696,0.000712
40.486663,0.000414
40.586630,0.000230
40.686597,0.000040
40.786564,0.000546
40.886531,0.000091
40.986498,0.000487
41.086465,0.000149
41.186432,0.000542
41.286399,0.000657
41.386366,0.000198
41.486334,0.000148
41.586301,0.000678
41.686268,0.000804
41.786235,0.000112
41.886202,0.000122
41.986169,0.000507
42.086136,0.000597
42.186103,0.000266
42.286070,0.000441
42.386037,0.000271
42.486004,0.000562
42.585971,0.000143
42.685938,0.000082
42.785905,0.000179
42.885872,0.000370
42.985840,0.000614
43.085807,0.000302
43.185774,0.000509
43.285741,0.000462
43.385708,0.000416
43.485675,0.000448
43.585642,0.000323
43.685609,0.000750
43.785576,0.000334
43.885543,0.000127
43.985510,0.000318
44.085477,0.000432
44.185444,0.000281
44.285411,0.000216
44.385379,0.000416
44.485346,0.000397
44.585313,0.000176
44.685280,0.000640
44.785247,0.000192
44.885214,0.000203
44.985181,0.000422
45.085148,0.000297
45.185115,0.000214
45.285082,0.000285
45.385049,0.000498
45.485016,0.000653
45.584983,0.000555
45.684950,0.000188
45.784917,0.000381
45.884885,0.000168
45.984852,0.000404
46.084819,0.000585
46.184786,0.000226
46.284753,0.000399
46.384720,0.000073
46.484687,0.000183
46.584654,0.000510
46.684621,0.000252
46.784588,0.000734
46.884555,0.000385
46.984522,0.000471
47.084489,0.000360
47.184456,0.000564
47.284424,0.000545
47.384391,0.000544
47.484358,0.000186
47.584325,0.000301
47.684292,0.000391
47.784259,0.000267
47.884226,0.000181
47.984193,0.000255
48.084160,0.000302
48.184127,0.000487
48.284094,0.000406
48.384061,0.000483
48.484028,0.000321
48.583995,0.000153
48.683962,0.000781
48.783930,0.000735
48.883897,0.000437
48.983864,0.000415
49.083831,0.000102
49.183798,0.000287
49.283765,0.000144
49.383732,0.000161
49.483699,0.000399
49.583666,0.000890
49.683633,0.000186
49.783600,0.000258
49.883567,0.000373
49.983534,0.000164
50.083501,0.000525
50.183469,0.000334
50.283436,0.000133
50.383403,0.000438
50.483370,0.000521
50.583337,0.000646
50.683304,0.000333
50.783271,0.000789
50.883238,0.000129
50.983205,0.000669
51.083172,0.000394
51.183139,0.000366
51.283106,0.000362
51.383073,0.000555
51.483040,0.000392
51.583007,0.000140
51.682975,0.000128
51.782942,0.000697
51.882909,0.000412
51.982876,0.000389
52.082843,0.000522
52.182810,0.000294
52.282777,0.000658
52.382744,0.000443
52.482711,0.000721
52.582678,0.000124
52.682645,0.000213
52.782612,0.000557
52.882579,0.000515
52.982546,0.000409
53.082514,0.000429
53.182481,0.000465
53.282448,0.000735
53.382415,0.000168
53.482382,0.000495
53.582349,0.000230
53.682316,0.000206
53.782283,0.000418
53.882250,0.000663
53.982217,0.000432
54.082184,0.000422
54.182151,0.000308
54.282118,0.000595
54.382085,0.000182
54.482052,0.000541
54.582020,0.000344
54.681987,0.000615
54.781954,0.000326
54.881921,0.000512
54.981888,0.000450
55.081855,0.000226
55.181822,0.000117
55.281789,0.000334
55.381756,0.000485
55.481723,0.000168
55.581690,0.000610
55.681657,0.000335
55.781624,0.000590
55.881591,0.000433
55.981559,0.000361
56.081526,0.000291
56.181493,0.000265
56.281460,0.000117
56.381427,0.000106
56.481394,0.000247
56.581361,0.000107
56.681328,0.000385
56.781295,0.000241
56.881262,0.000251
56.981229,0.000227
57.081196,0.000572
57.181163,0.000383
57.281130,0.000255
57.381097,0.000611
57.481065,0.000264
57.581032,0.000262
57.680999,0.000372
57.780966,0.000134
57.880933,0.000209
57.980900,0.000341
58.080867,0.000556
58.180834,0.000295
58.280801,0.000241
58.380768,0.000235
58.480735,0.000221
58.580702,0.000456
58.680669,0.000196
58.780636,0.000200
58.880603,0.000763
58.980571,0.000498
59.080538,0.000291
59.180505,0.000441
59.280472,0.000078
59.380439,0.000502
59.480406,0.000074
59.580373,0.000287
59.680340,0.000079
59.780307,0.000211
59.880274,0.000124
59.980241,0.000080
60.080208,0.000120
60.180175,0.000259
60.280142,0.000400
60.380110,0.000471
60.480077,0.000620
60.580044,0.000300
60.680011,0.000157
60.779978,0.000306
60.879945,0.000585
60.979912,0.000383
61.079879,0.000689
61.179846,0.000398
61.279813,0.000216
61.379780,0.000571
61.479747,0.000261
61.579714,0.000782
61.679681,0.000268
61.779648,0.000149
61.879616,0.000195
61.979583,0.000459
62.079550,0.000473
62.179517,0.000331
62.279484,0.000048
62.379451,0.000337
62.479418,0.000361
62.579385,0.000276
62.679352,0.000518
62.779319,0.000490
62.879286,0.000278
62.979253,0.000214
63.079220,0.000326
63.179187,0.000299
63.279155,0.000384
63.379122,0.000215
63.479089,0.000152
63.579056,0.000115
63.679023,0.000443
63.778990,0.000023
63.878957,0.000492
63.978924,0.000112
64.078891,0.000533
64.178858,0.000420
64.278825,0.000276
64.378792,0.000385
64.478759,0.000391
64.578726,0.000027
64.678693,0.000110
64.778661,0.000307
64.878628,0.000061
64.978595,0.000201
65.078562,0.000201
65.178529,0.000162
65.278496,0.000304
65.378463,0.000498
65.478430,0.000307
65.578397,0.000251
65.678364,0.000803
65.778331,0.000184
65.878298,0.000209
65.978265,0.000214
66.078232,0.000050
66.178200,0.000324
66.278167,0.000309
66.378134,0.000361
66.478101,0.000494
66.578068,0.000323
66.678035,0.000147
66.778002,0.000201
66.877969,0.000339
66.977936,0.000284
67.077903,0.000072
67.177870,0.000219
67.277837,0.000548
67.377804,0.000303
67.477771,0.000287
67.577738,0.000160
67.677706,0.000210
67.777673,0.000218
67.877640,0.000442
67.977607,0.000579
68.077574,0.000237
68.177541,0.000252
68.277508,0.000316
68.377475,0.000190
68.477442,0.000323
68.577409,0.000255
68.677376,0.000070
68.777343,0.000201
68.877310,0.000268
68.977277,0.000399
69.077245,0.000378
69.177212,0.000268
69.277179,0.000110
69.377146,0.000388
69.477113,0.000295
69.577080,0.000292
69.677047,0.000397
69.777014,0.000139
69.876981,0.000448
69.976948,0.000312
70.076915,0.000206
70.176882,0.000412
70.276849,0.000241
70.376816,0.000358
70.476783,0.000114
70.576751,0.000307
70.676718,0.000337
70.776685,0.000311
70.876652,0.000259
70.976619,0.000041
71.076586,0.000406
71.176553,0.000555
71.276520,0.000095
71.376487,0.000473
71.476454,0.000336
71.576421,0.000637
71.676388,0.000580
71.776355,0.000222
71.876322,0.000162
71.976290,0.000040
72.076257,0.000282
72.176224,0.000388
72.276191,0.000291
72.376158,0.000364
72.476125,0.000329
72.576092,0.000586
72.676059,0.000433
72.776026,0.000047
72.875993,0.000223
72.975960,0.000015
73.075927,0.000279
73.175894,0.000095
73.275861,0.000500
73.375828,0.000542
73.475796,0.000487
73.575763,0.000382
73.675730,0.000334
73.775697,0.000672
73.875664,0.000425
73.975631,0.000474
74.075598,0.000402
74.175565,0.000486
74.275532,0.000100
74.375499,0.000098
74.475466,0.000282
74.575433,0.000157
74.675400,0.000190
74.775367,0.000463
74.875335,0.000244
74.975302,0.000308
75.075269,0.000091
75.175236,0.000298
75.275203,0.000244
75.375170,0.000050
75.475137,0.000196
75.575104,0.000449
75.675071,0.000496
75.775038,0.000155
75.875005,0.000138
75.974972,0.000596
76.074939,0.000401
76.174906,0.000198
76.274873,0.000433
76.374841,0.000410
76.474808,0.000281
76.574775,0.000379
76.674742,0.000563
76.774709,0.000354
76.874676,0.000076
76.974643,0.000147
77.074610,0.000436
77.174577,0.000523
77.274544,0.000234
77.374511,0.000289
77.474478,0.000037
77.574445,0.000423
77.674412,0.000107
77.774379,0.000275
77.874347,0.000265
77.974314,0.000222
78.074281,0.000156
78.174248,0.000327
78.274215,0.000181
78.374182,0.000119
78.474149,0.000088
78.574116,0.000343
78.674083,0.000268
78.774050,0.000291
78.874017,0.000071
78.973984,0.000374
79.073951,0.000812
79.173918,0.000153
79.273886,0.000084
79.373853,0.000206
79.473820,0.000294
79.573787,0.000243
79.673754,0.000158
79.773721,0.000263
79.873688,0.000020
79.973655,0.000283
80.073622,0.000361
80.173589,0.000274
80.273556,0.000336
80.373523,0.000848
80.473490,0.000609
80.573457,0.000230
80.673424,0.000147
80.773392,0.000245
80.873359,0.000172
80.973326,0.000442
81.073293,0.000177
81.173260,0.000151
81.273227,0.000628
81.373194,0.000214
81.473161,0.000173
81.573128,0.000317
81.673095,0.000039
81.773062,0.000554
81.873029,0.000259
81.972996,0.000418
82.072963,0.000171
82.172931,0.000249
82.272898,0.000246
82.372865,0.000222
82.472832,0.000090
82.572799,0.000303
82.672766,0.000343
82.772733,0.000313
82.872700,0.000098
82.972667,0.000155
83.072634,0.000210
83.172601,0.000133
83.272568,0.000208
83.372535,0.000463
83.472502,0.000777
83.572469,0.000286
83.672437,0.000163
83.772404,0.000740
83.872371,0.000567
83.972338,0.000529
84.072305,0.000347
84.172272,0.000122
84.272239,0.000416
84.372206,0.000381
84.472173,0.000164
84.572140,0.000112
84.672107,0.000266
84.772074,0.000147
84.872041,0.000297
84.972008,0.000290
85.071976,0.000121
85.171943,0.000271
85.271910,0.000365
85.371877,0.000070
85.471844,0.000206
85.571811,0.000285
85.671778,0.000659
85.771745,0.000409
85.871712,0.000273
85.971679,0.000442
86.071646,0.000068
86.171613,0.000177
86.271580,0.000328
86.371547,0.000179
86.471514,0.000207
86.571482,0.000171
86.671449,0.000152
86.771416,0.000272
86.871383,0.000132
86.971350,0.000134
87.071317,0.000125
87.171284,0.000019
87.271251,0.000401
87.371218,0.000276
87.471185,0.000433
87.571152,0.000307
87.671119,0.000120
87.771086,0.000499
87.871053,0.000721
87.971021,0.000400
88.070988,0.000483
88.170955,0.000468
88.270922,0.000087
88.370889,0.000317
88.470856,0.000253
88.570823,0.000257
88.670790,0.000267
88.770757,0.000236
88.870724,0.000399
88.970691,0.000255
89.070658,0.000573
89.170625,0.000092
89.270592,0.000426
89.370559,0.000142
89.470527,0.000219
89.570494,0.000205
89.670461,0.000068
89.770428,0.000284
89.870395,0.000545
89.970362,0.000293
90.070329,0.000250
90.170296,0.000492
90.270263,0.000286
90.370230,0.000122
90.470197,0.000098
90.570164,0.000406
90.670131,0.000081
90.770098,0.000285
90.870066,0.000332
90.970033,0.000070
91.070000,0.000240
91.169967,0.000263
91.269934,0.000450
91.369901,0.000576
91.469868,0.000322
91.569835,0.000352
91.669802,0.000092
91.769769,0.000376
91.869736,0.000684
91.969703,0.000468
92.069670,0.000279
92.169637,0.000147
92.269604,0.000149
92.369572,0.000315
92.469539,0.000366
92.569506,0.000280
92.669473,0.000065
92.769440,0.000253
92.869407,0.000453
92.969374,0.000675
93.069341,0.000308
93.169308,0.000374
93.269275,0.000207
93.369242,0.000300
93.469209,0.000149
93.569176,0.000244
93.669143,0.000342
93.769110,0.000184
93.869078,0.000433
93.969045,0.000241
94.069012,0.000187
94.168979,0.000521
94.268946,0.000176
94.368913,0.000159
94.468880,0.000399
94.568847,0.000482
94.668814,0.000078
94.768781,0.000159
94.868748,0.000241
94.968715,0.000086
95.068682,0.000301
95.168649,0.000436
95.268617,0.000148
95.368584,0.000378
95.468551,0.000183
95.568518,0.000612
95.668485,0.000297
95.768452,0.000101
95.868419,0.000426
95.968386,0.000193
96.068353,0.000339
96.168320,0.000267
96.268287,0.000173
96.368254,0.000234
96.468221,0.000201
96.568188,0.000194
96.668155,0.000459
96.768123,0.000445
96.868090,0.000232
96.968057,0.000406
97.068024,0.000151
97.167991,0.000477
97.267958,0.000445
97.367925,0.000275
97.467892,0.000442
97.567859,0.000284
97.667826,0.000415
97.767793,0.000659
97.867760,0.000539
97.967727,0.000062
98.067694,0.000434
98.167662,0.000202
98.267629,0.000178
98.367596,0.000235
98.467563,0.000249
98.567530,0.000158
98.667497,0.000249
98.767464,0.000273
98.867431,0.000566
98.967398,0.000206
99.067365,0.000236
99.167332,0.000421
99.267299,0.000428
99.367266,0.000427
99.467233,0.000272
99.567200,0.000141
99.667168,0.000383
99.767135,0.000417
99.867102,0.000351
99.967069,0.000291
100.067036,0.000443
100.167003,0.000310
100.266970,0.000093
100.366937,0.000397
100.466904,0.000153
100.566871,0.000126
100.666838,0.000289
100.766805,0.000260
100.866772,0.000507
100.966739,0.000191
101.066707,0.000458
101.166674,0.000247
101.266641,0.000355
101.366608,0.000020
101.466575,0.000041
101.566542,0.000075
101.666509,0.000481
101.766476,0.000421
101.866443,0.000174
101.966410,0.000438
102.066377,0.000277
102.166344,0.000177
102.266311,0.000791
102.366278,0.000180
102.466245,0.000216
102.566213,0.000236
102.666180,0.000667
102.766147,0.000505
102.866114,0.000431
102.966081,0.000398
103.066048,0.000229
103.166015,0.000344
103.265982,0.000183
103.365949,0.000108
103.465916,0.000462
103.565883,0.000365
103.665850,0.000131
103.765817,0.000166
103.865784,0.000226
103.965752,0.000225
104.065719,0.000095
104.165686,0.000245
104.265653,0.000539
104.365620,0.000239
104.465587,0.000319
104.565554,0.000142
104.665521,0.000099
104.765488,0.000390
104.865455,0.000237
104.965422,0.000147
105.065389,0.000309
105.165356,0.000278
105.265323,0.000328
105.365290,0.000199
105.465258,0.000286
105.565225,0.000222
105.665192,0.000271
105.765159,0.000211
105.865126,0.000339
105.965093,0.000349
106.065060,0.000139
106.165027,0.000165
106.264994,0.000264
106.364961,0.000130
106.464928,0.000236
106.564895,0.000354
106.664862,0.000255
106.764829,0.000305
106.864797,0.000178
106.964764,0.000308
107.064731,0.000419
107.164698,0.000461
107.264665,0.000498
107.364632,0.000108
107.464599,0.000533
107.564566,0.000429
107.664533,0.000258
107.764500,0.000173
107.864467,0.000422
107.964434,0.000630
108.064401,0.000215
108.164368,0.000072
108.264335,0.000455
108.364303,0.000395
108.464270,0.000084
108.564237,0.000359
108.664204,0.000421
108.764171,0.000190
108.864138,0.000578
108.964105,0.000175
109.064072,0.000153
109.164039,0.000343
109.264006,0.000225
109.363973,0.000168
109.463940,0.000288
109.563907,0.000374
109.663874,0.000179
109.763841,0.000477
109.863809,0.000487
109.963776,0.000278
110.063743,0.000474
110.163710,0.000087
110.263677,0.000410
110.363644,0.000178
110.463611,0.000134
110.563578,0.000333
110.663545,0.000241
110.763512,0.000338
110.863479,0.000536
110.963446,0.000607
111.063413,0.000226
111.163380,0.000251
111.263348,0.000563
111.363315,0.000104
111.463282,0.000255
111.563249,0.000221
111.663216,0.000067
111.763183,0.000084
111.863150,0.000178
111.963117,0.000311
112.063084,0.000160
112.163051,0.000341
112.263018,0.000100
112.362985,0.000218
112.462952,0.000611
112.562919,0.000309
112.662886,0.000414
112.762854,0.000145
112.862821,0.000034
112.962788,0.000564
113.062755,0.000109
113.162722,0.000143
113.262689,0.000413
113.362656,0.000050
113.462623,0.000406
113.562590,0.000190
113.662557,0.000415
113.762524,0.000053
113.862491,0.000234
113.962458,0.000251
114.062425,0.000381
114.162393,0.000386
114.262360,0.000485
114.362327,0.000083
114.462294,0.000283
114.562261,0.000260
114.662228,0.000255
114.762195,0.000119
114.862162,0.000234
114.962129,0.000044
115.062096,0.000609
115.162063,0.000286
115.262030,0.000284
115.361997,0.000142
115.461964,0.000211
115.561931,0.000234
115.661899,0.000333
115.761866,0.000215
115.861833,0.000175
115.961800,0.000284
116.061767,0.000252
116.161734,0.000187
116.261701,0.000084
116.361668,0.000281
116.461635,0.000413
116.561602,0.000040
116.661569,0.000059
116.761536,0.000466
116.861503,0.000460
116.961470,0.000455
117.061438,0.000409
117.161405,0.000074
117.261372,0.000396
117.361339,0.000026
117.461306,0.000463
117.561273,0.000289
117.661240,0.000085
117.761207,0.000236
117.861174,0.000281
117.961141,0.000478
118.061108,0.000291
118.161075,0.000086
118.261042,0.000341
118.361009,0.000295
118.460976,0.000075
118.560944,0.000741
118.660911,0.000083
118.760878,0.000202
118.860845,0.000311
118.960812,0.000360
119.060779,0.000323
119.160746,0.000426
119.260713,0.000180
119.360680,0.000325
119.460647,0.000082
119.560614,0.000158
119.660581,0.000441
119.760548,0.000212
119.860515,0.000530
119.960483,0.000083
120.060450,0.000345
120.160417,0.000262
120.260384,0.000233
120.360351,0.000351
120.460318,0.000188
120.560285,0.000160
120.660252,0.000505
120.760219,0.000327
120.860186,0.000362
120.960153,0.000369
121.060120,0.000148
121.160087,0.000051
121.260054,0.000165
121.360021,0.000271
121.459989,0.000334
121.559956,0.000355
121.659923,0.000014
121.759890,0.000190
121.859857,0.000327
121.959824,0.000231
122.059791,0.000249
122.159758,0.000354
122.259725,0.000173
122.359692,0.000134
122.459659,0.000347
122.559626,0.000243
122.659593,0.000137
122.759560,0.000366
122.859528,0.000279
122.959495,0.000041
123.059462,0.000333
123.159429,0.000115
123.259396,0.000220
123.359363,0.000227
123.459330,0.000472
123.559297,0.000286
123.659264,0.000231
123.759231,0.000200
123.859198,0.000214
123.959165,0.000474
124.059132,0.000274
124.159099,0.000147
124.259066,0.000339
124.359034,0.000190
124.459001,0.000425
124.558968,0.000630
124.658935,0.000429
124.758902,0.000231
124.858869,0.000489
124.958836,0.000511
125.058803,0.000200
125.158770,0.000474
125.258737,0.000173
125.358704,0.000197
125.458671,0.000420
125.558638,0.000316
125.658605,0.000066
125.758573,0.000251
125.858540,0.000402
125.958507,0.000322
126.058474,0.000531
126.158441,0.000169
126.258408,0.000101
126.358375,0.000266
126.458342,0.000133
126.558309,0.000424
126.658276,0.000228
126.758243,0.000135
126.858210,0.000129
126.958177,0.000428
127.058144,0.000055
127.158111,0.000437
127.258079,0.000406
127.358046,0.000104
127.458013,0.000225
127.557980,0.000257
127.657947,0.000112
127.757914,0.000377
127.857881,0.000236
127.957848,0.000340
128.057815,0.000265
128.157782,0.000183
128.257749,0.000384
128.357716,0.000194
128.457683,0.000122
128.557650,0.000352
128.657617,0.000084
128.757585,0.000186
128.857552,0.000314
128.957519,0.000347
129.057486,0.000538
129.157453,0.000122
129.257420,0.000131
129.357387,0.000207
129.457354,0.000270
129.557321,0.000366
129.657288,0.000155
129.757255,0.000446
129.857222,0.000292
129.957189,0.000182
130.057156,0.000104
130.157124,0.000624
130.257091,0.000321
130.357058,0.000205
130.457025,0.000197
130.556992,0.000212
130.656959,0.000304
130.756926,0.000271
130.856893,0.000154
130.956860,0.000330
131.056827,0.000152
131.156794,0.000731
131.256761,0.000179
131.356728,0.000350
131.456695,0.000441
131.556662,0.000388
131.656630,0.000438
131.756597,0.000454
131.856564,0.000208
131.956531,0.000064
132.056498,0.000625
132.156465,0.000547
132.256432,0.000221
132.356399,0.000404
132.456366,0.000162
132.556333,0.000314
132.656300,0.000489
132.756267,0.000264
132.856234,0.000260
132.956201,0.000404
133.056169,0.000101
133.156136,0.000352
133.256103,0.000270
133.356070,0.000161
133.456037,0.000342
133.556004,0.000390
133.655971,0.000408
133.755938,0.000407
133.855905,0.000203
133.955872,0.000288
134.055839,0.000314
134.155806,0.000417
134.255773,0.000596
134.355740,0.000318
134.455707,0.000436
134.555675,0.000295
134.655642,0.000152
134.755609,0.000558
134.855576,0.000253
134.955543,0.000205
135.055510,0.000099
135.155477,0.000192
135.255444,0.000289
135.355411,0.000379
135.455378,0.000068
135.555345,0.000360
135.655312,0.000327
135.755279,0.000399
135.855246,0.000431
135.955214,0.000280
136.055181,0.000551
136.155148,0.000187
136.255115,0.000156
136.355082,0.000136
136.455049,0.000251
136.555016,0.000152
136.654983,0.000078
136.754950,0.000269
136.854917,0.000206
136.954884,0.000307
137.054851,0.000265
137.154818,0.000629
137.254785,0.000408
137.354752,0.000040
137.454720,0.000191
137.554687,0.000160
137.654654,0.000420
137.754621,0.000208
137.854588,0.000154
137.954555,0.000486
138.054522,0.000467
138.154489,0.000214
138.254456,0.000560
138.354423,0.000295
138.454390,0.000084
138.554357,0.000257
138.654324,0.000435
138.754291,0.000238
138.854259,0.000084
138.954226,0.000500
139.054193,0.000115
139.154160,0.000491
139.254127,0.000377
139.354094,0.000055
139.454061,0.000588
139.554028,0.000340
139.653995,0.000397
139.753962,0.000334
139.853929,0.000312
139.953896,0.000059
140.053863,0.000194
140.153830,0.000348
140.253797,0.000266
140.353765,0.000341
140.453732,0.000336
140.553699,0.000344
140.653666,0.000330
140.753633,0.000355
140.853600,0.000396
140.953567,0.000464
141.053534,0.000079
141.153501,0.000560
141.253468,0.000390
141.353435,0.000286
141.453402,0.000328
141.553369,0.000269
141.653336,0.000250
141.753304,0.000099
141.853271,0.000252
141.953238,0.000258
142.053205,0.000123
142.153172,0.000346
142.253139,0.000072
142.353106,0.000181
142.453073,0.000225
142.553040,0.000609
142.653007,0.000056
142.752974,0.000433
142.852941,0.000211
142.952908,0.000061
143.052875,0.000116
143.152842,0.000267
143.252810,0.000441
143.352777,0.000253
143.452744,0.000086
143.552711,0.000073
143.652678,0.000304
143.752645,0.000654
143.852612,0.000217
143.952579,0.000115
144.052546,0.000350
144.152513,0.000194
144.252480,0.000062
144.352447,0.000225
144.452414,0.000332
144.552381,0.000015
144.652348,0.000170
144.752316,0.000260
144.852283,0.000141
144.952250,0.000215
145.052217,0.000256
145.152184,0.000214
145.252151,0.000245
145.352118,0.000404
145.452085,0.000585
145.552052,0.000360
145.652019,0.000286
145.751986,0.000682
145.851953,0.000350
145.951920,0.000120
146.051887,0.000074
146.151855,0.000292
146.251822,0.000398
146.351789,0.000272
146.451756,0.000403
146.551723,0.000234
146.651690,0.000173
146.751657,0.000084
146.851624,0.000378
146.951591,0.000397
147.051558,0.000314
147.151525,0.000307
147.251492,0.000414
147.351459,0.000250
147.451426,0.000224
147.551393,0.000172
147.651361,0.000227
147.751328,0.000282
147.851295,0.000233
147.951262,0.000434
148.051229,0.000225
148.151196,0.000063
148.251163,0.000494
148.351130,0.000111
148.451097,0.000248
148.551064,0.000603
148.651031,0.000179
148.750998,0.000089
148.850965,0.000214
148.950932,0.000287
149.050900,0.000173
149.150867,0.000180
149.250834,0.000125
149.350801,0.000369
149.450768,0.000416
149.550735,0.000066
149.650702,0.000278
149.750669,0.000289
149.850636,0.000254
149.950603,0.000388
150.050570,0.000103
150.150537,0.000100
150.250504,0.000257
150.350471,0.000423
150.450438,0.000280
150.550406,0.000281
150.650373,0.000033
150.750340,0.000163
150.850307,0.000039
150.950274,0.000086
151.050241,0.000221
151.150208,0.000115
151.250175,0.000058
151.350142,0.000143
151.450109,0.000400
151.550076,0.000430
151.650043,0.000312
151.750010,0.000174
151.849977,0.000252
151.949945,0.000481
152.049912,0.000159
152.149879,0.000308
152.249846,0.000190
152.349813,0.000363
152.449780,0.000193
152.549747,0.000099
152.649714,0.000090
152.749681,0.000323
152.849648,0.000377
152.949615,0.000387
153.049582,0.000416
153.149549,0.000517
153.249516,0.000233
153.349483,0.000233
153.449451,0.000217
153.549418,0.000175
153.649385,0.000429
153.749352,0.000244
153.849319,0.000628
153.949286,0.000380
154.049253,0.000368
154.149220,0.000542
154.249187,0.000105
154.349154,0.000343
154.449121,0.000088
154.549088,0.000299
154.649055,0.000278
154.749022,0.000376
154.848990,0.000286
154.948957,0.000136
155.048924,0.000079
155.148891,0.000266
155.248858,0.000336
155.348825,0.000296
155.448792,0.000263
155.548759,0.000088
155.648726,0.000232
155.748693,0.000356
155.848660,0.000065
155.948627,0.000418
156.048594,0.000252
156.148561,0.000233
156.248528,0.000469
156.348496,0.000033
156.448463,0.000307
156.548430,0.000287
156.648397,0.000241
156.748364,0.000090
156.848331,0.000344
156.948298,0.000147
157.048265,0.000110
157.148232,0.000161
157.248199,0.000291
157.348166,0.000317
157.448133,0.000093
157.548100,0.000177
157.648067,0.000082
157.748035,0.000146
157.848002,0.000214
157.947969,0.000514
158.047936,0.000347
158.147903,0.000222
158.247870,0.000193
158.347837,0.000212
158.447804,0.000562
158.547771,0.000519
158.647738,0.000291
158.747705,0.000483
158.847672,0.000244
158.947639,0.000309
159.047606,0.000323
159.147573,0.000260
159.247541,0.000127
159.347508,0.000326
159.447475,0.000107
159.547442,0.000055
159.647409,0.000142
159.747376,0.000286
159.847343,0.000286
159.947310,0.000224
160.047277,0.000246
160.147244,0.000218
160.247211,0.000073
160.347178,0.000378
160.447145,0.000226
160.547112,0.000296
160.647079,0.000302
160.747047,0.000314
160.847014,0.000482
160.946981,0.000263
161.046948,0.000138
161.146915,0.000340
161.246882,0.000506
161.346849,0.000323
161.446816,0.000394
161.546783,0.000409
161.646750,0.000219
161.746717,0.000095
161.846684,0.000071
161.946651,0.000263
162.046618,0.000164
162.146586,0.000112
162.246553,0.000528
162.346520,0.000184
162.446487,0.000106
162.546454,0.000138
162.646421,0.000054
162.746388,0.000098
162.846355,0.000307
162.946322,0.000481
163.046289,0.000255
163.146256,0.000151
163.246223,0.000313
163.346190,0.000348
163.446157,0.000236
163.546124,0.000285
163.646092,0.000317
163.746059,0.000117
163.846026,0.000223
163.945993,0.000233
164.045960,0.000208
164.145927,0.000199
164.245894,0.000264
164.345861,0.000156
164.445828,0.000177
164.545795,0.000440
164.645762,0.000146
164.745729,0.000327
164.845696,0.000304
164.945663,0.000099
165.045631,0.000055
165.145598,0.000393
165.245565,0.000134
165.345532,0.000059
165.445499,0.000194
165.545466,0.000283
165.645433,0.000104
165.745400,0.000080
165.845367,0.000141
165.945334,0.000414
166.045301,0.000178
166.145268,0.000549
166.245235,0.000010
166.345202,0.000240
166.445169,0.000354
166.545137,0.000260
166.645104,0.000264
166.745071,0.000426
166.845038,0.000212
166.945005,0.000473
167.044972,0.000513
167.144939,0.000427
167.244906,0.000544
167.344873,0.000070
167.444840,0.000164
167.544807,0.000371
167.644774,0.000166
167.744741,0.000208
167.844708,0.000325
167.944676,0.000112
168.044643,0.000025
168.144610,0.000262
168.244577,0.000324
168.344544,0.000292
168.444511,0.000079
168.544478,0.000218
168.644445,0.000284
168.744412,0.000304
168.844379,0.000282
168.944346,0.000100
169.044313,0.000354
169.144280,0.000457
169.244247,0.000057
169.344214,0.000516
169.444182,0.000392
169.544149,0.000175
169.644116,0.000178
169.744083,0.000048
169.844050,0.000331
169.944017,0.000267
170.043984,0.000035
170.143951,0.000303
170.243918,0.000120
170.343885,0.000413
170.443852,0.000162
170.543819,0.000335
170.643786,0.000261
170.743753,0.000399
170.843721,0.000222
170.943688,0.000400
171.043655,0.000331
171.143622,0.000390
171.243589,0.000328
171.343556,0.000081
171.443523,0.000235
171.543490,0.000174
171.643457,0.000230
171.743424,0.000254
171.843391,0.000169
171.943358,0.000378
172.043325,0.000199
172.143292,0.000071
172.243259,0.000276
172.343227,0.000450
172.443194,0.000394
172.543161,0.000261
172.643128,0.000284
172.743095,0.000118
172.843062,0.000201
172.943029,0.000051
173.042996,0.000295
173.142963,0.000225
173.242930,0.000817
173.342897,0.000168
173.442864,0.000209
173.542831,0.000353
173.642798,0.000166
173.742766,0.000123
173.842733,0.000169
173.942700,0.000025
174.042667,0.000139
174.142634,0.000282
174.242601,0.000278
174.342568,0.000293
174.442535,0.000282
174.542502,0.000183
174.642469,0.000025
174.742436,0.000267
174.842403,0.000162
174.942370,0.000514
175.042337,0.000076
175.142304,0.000245
175.242272,0.000636
175.342239,0.000045
175.442206,0.000159
175.542173,0.000288
175.642140,0.000427
175.742107,0.000357
175.842074,0.000379
175.942041,0.000130
176.042008,0.000130
176.141975,0.000512
176.241942,0.000424
176.341909,0.000450
176.441876,0.000174
176.541843,0.000415
176.641810,0.000332
176.741778,0.000200
176.841745,0.000164
176.941712,0.000444
177.041679,0.000226
177.141646,0.000192
177.241613,0.000418
177.341580,0.000556
177.441547,0.000090
177.541514,0.000156
177.641481,0.000168
177.741448,0.000116
177.841415,0.000250
177.941382,0.000248
178.041349,0.000476
178.141317,0.000094
178.241284,0.000338
178.341251,0.000077
178.441218,0.000406
178.541185,0.000126
178.641152,0.000327
178.741119,0.000299
178.841086,0.000379
178.941053,0.000321
179.041020,0.000201
179.140987,0.000081
179.240954,0.000242
179.340921,0.000071
179.440888,0.000724
179.540855,0.000280
179.640823,0.000063
179.740790,0.000600
179.840757,0.000335
179.940724,0.000369
180.040691,0.000633
180.140658,0.000346
180.240625,0.000313
180.340592,0.000339
180.440559,0.000233
180.540526,0.000214
180.640493,0.000138
180.740460,0.000064
180.840427,0.000587
180.940394,0.000668
181.040362,0.000123
181.140329,0.000279
181.240296,0.000337
181.340263,0.000388
181.440230,0.000274
181.540197,0.000239
181.640164,0.000372
181.740131,0.000171
181.840098,0.000276
181.940065,0.000383
182.040032,0.000645
182.139999,0.000141
182.239966,0.000248
182.339933,0.000042
182.439900,0.000639
182.539868,0.000177
182.639835,0.000292
182.739802,0.000371
182.839769,0.000374
182.939736,0.000198
183.039703,0.000082
183.139670,0.000106
183.239637,0.000471
183.339604,0.000310
183.439571,0.000108
183.539538,0.000201
183.639505,0.000473
183.739472,0.000430
183.839439,0.000394
183.939407,0.000144
184.039374,0.000259
184.139341,0.000149
184.239308,0.000196
184.339275,0.000149
184.439242,0.000129
184.539209,0.000458
184.639176,0.000471
184.739143,0.000541
184.839110,0.000340
184.939077,0.000066
185.039044,0.000455
185.139011,0.000314
185.238978,0.000397
185.338945,0.000332
185.438913,0.000200
185.538880,0.000191
185.638847,0.000272
185.738814,0.000347
185.838781,0.000200
185.938748,0.000275
186.038715,0.000360
186.138682,0.000196
186.238649,0.000100
186.338616,0.000165
186.438583,0.000406
186.538550,0.000085
186.638517,0.000215
186.738484,0.000519
186.838452,0.000231
186.938419,0.000243
187.038386,0.000143
187.138353,0.000255
187.238320,0.000204
187.338287,0.000278
187.438254,0.000140
187.538221,0.000457
187.638188,0.000121
187.738155,0.000194
187.838122,0.000297
187.938089,0.000442
188.038056,0.000225
188.138023,0.000542
188.237990,0.000361
188.337958,0.000429
188.437925,0.000181
188.537892,0.000211
188.637859,0.000253
188.737826,0.000414
188.837793,0.000368
188.937760,0.000070
189.037727,0.000215
189.137694,0.000309
189.237661,0.000106
189.337628,0.000203
189.437595,0.000365
189.537562,0.000108
189.637529,0.000355
189.737497,0.000134
189.837464,0.000407
189.937431,0.000296
190.037398,0.000178
190.137365,0.000285
190.237332,0.000310
190.337299,0.000314
190.437266,0.000070
190.537233,0.000541
190.637200,0.000319
190.737167,0.000103
190.837134,0.000199
190.937101,0.000148
191.037068,0.000193
191.137035,0.000514
191.237003,0.000133
191.336970,0.000299
191.436937,0.000498
191.536904,0.000178
191.636871,0.000430
191.736838,0.000191
191.836805,0.000280
191.936772,0.000365
192.036739,0.000114
192.136706,0.000183
192.236673,0.000094
192.336640,0.000300
192.436607,0.000189
192.536574,0.000132
192.636542,0.000399
192.736509,0.000438
192.836476,0.000417
192.936443,0.000077
193.036410,0.000210
193.136377,0.000276
193.236344,0.000300
193.336311,0.000219
193.436278,0.000272
193.536245,0.000425
193.636212,0.000094
193.736179,0.000132
193.836146,0.000248
193.936113,0.000360
194.036080,0.000115
194.136048,0.000208
194.236015,0.000220
194.335982,0.000063
194.435949,0.000324
194.535916,0.000190
194.635883,0.000099
194.735850,0.000324
194.835817,0.000201
194.935784,0.000112
195.035751,0.000312
195.135718,0.000273
195.235685,0.000221
195.335652,0.000306
195.435619,0.000144
195.535586,0.000229
195.635554,0.000308
195.735521,0.000244
195.835488,0.000147
195.935455,0.000249
196.035422,0.000632
196.135389,0.000305
196.235356,0.000314
196.335323,0.000324
196.435290,0.000188
196.535257,0.000638
196.635224,0.000245
196.735191,0.000633
196.835158,0.000269
196.935125,0.000302
197.035093,0.000247
197.135060,0.000201
197.235027,0.000088
197.334994,0.000043
197.434961,0.000152
197.534928,0.000143
197.634895,0.000303
197.734862,0.000177
197.834829,0.000486
197.934796,0.000277
198.034763,0.000289
198.134730,0.000474
198.234697,0.000316
198.334664,0.000120
198.434631,0.000203
198.534599,0.000240
198.634566,0.000181
198.734533,0.000169
198.834500,0.000240
198.934467,0.000101
199.034434,0.000299
199.134401,0.000251
199.234368,0.000388
199.334335,0.000061
199.434302,0.000112
199.534269,0.000188
199.634236,0.000088
199.734203,0.000334
199.834170,0.000210
199.934138,0.000278
200.034105,0.000198
200.134072,0.000108
200.234039,0.000219
200.334006,0.000355
200.433973,0.000203
200.533940,0.000403
200.633907,0.000302
200.733874,0.000146
200.833841,0.000306
200.933808,0.000187
201.033775,0.000393
201.133742,0.000164
201.233709,0.000183
201.333676,0.000331
201.433644,0.000227
201.533611,0.000236
201.633578,0.000172
201.733545,0.000429
201.833512,0.000096
201.933479,0.000176
202.033446,0.000252
202.133413,0.000122
202.233380,0.000402
202.333347,0.000230
202.433314,0.000207
202.533281,0.000078
202.633248,0.000415
202.733215,0.000036
202.833183,0.000445
202.933150,0.000148
203.033117,0.000064
203.133084,0.000212
203.233051,0.000304
203.333018,0.000016
